Anomalies (electrode spacing 1 m)
    0.500000
3
85
1
0
    1.500000,     1.000000,   1.00000,      114.38
    2.500000,     1.000000,   1.00000,      43.525
    3.500000,     1.000000,   1.00000,      17.371
    4.500000,     1.000000,   1.00000,      17.914
    5.500000,     1.000000,   1.00000,      45.835
    6.500000,     1.000000,   1.00000,      83.184
    7.500000,     1.000000,   1.00000,      59.277
    8.500000,     1.000000,   1.00000,      62.983
    9.500000,     1.000000,   1.00000,      96.002
   10.500000,     1.000000,   1.00000,      94.819
   11.500000,     1.000000,   1.00000,      88.331
    2.000000,     1.000000,   2.00000,      37.411
    3.000000,     1.000000,   2.00000,      18.318
    4.000000,     1.000000,   2.00000,      47.707
    5.000000,     1.000000,   2.00000,      19.580
    6.000000,     1.000000,   2.00000,      23.601
    7.000000,     1.000000,   2.00000,      46.938
    8.000000,     1.000000,   2.00000,      45.419
    9.000000,     1.000000,   2.00000,      44.952
   10.000000,     1.000000,   2.00000,      70.264
   11.000000,     1.000000,   2.00000,      69.373
    3.000000,     2.000000,   1.00000,      34.966
    4.000000,     2.000000,   1.00000,      59.565
    5.000000,     2.000000,   1.00000,      28.545
    6.000000,     2.000000,   1.00000,      17.227
    7.000000,     2.000000,   1.00000,      43.311
    8.000000,     2.000000,   1.00000,      56.371
    9.000000,     2.000000,   1.00000,      41.803
   10.000000,     2.000000,   1.00000,      52.466
    2.500000,     1.000000,   3.00000,      19.342
    3.500000,     1.000000,   3.00000,      69.070
    4.500000,     1.000000,   3.00000,      66.502
    5.500000,     1.000000,   3.00000,      10.128
    6.500000,     1.000000,   3.00000,      13.149
    7.500000,     1.000000,   3.00000,      74.963
    8.500000,     1.000000,   3.00000,      50.058
    9.500000,     1.000000,   3.00000,      28.454
   10.500000,     1.000000,   3.00000,      47.811
    3.000000,     1.000000,   4.00000,      81.244
    4.000000,     1.000000,   4.00000,      85.969
    5.000000,     1.000000,   4.00000,      34.295
    6.000000,     1.000000,   4.00000,      7.7156
    7.000000,     1.000000,   4.00000,      22.200
    8.000000,     1.000000,   4.00000,      86.575
    9.000000,     1.000000,   4.00000,      36.242
   10.000000,     1.000000,   4.00000,      20.809
    4.500000,     3.000000,   1.00000,      58.279
    5.500000,     3.000000,   1.00000,      25.768
    6.500000,     3.000000,   1.00000,      21.631
    7.500000,     3.000000,   1.00000,      49.281
    8.500000,     3.000000,   1.00000,      48.288
    4.000000,     2.000000,   2.00000,      71.216
    5.000000,     2.000000,   2.00000,      36.267
    6.000000,     2.000000,   2.00000,      24.022
    7.000000,     2.000000,   2.00000,      20.014
    8.000000,     2.000000,   2.00000,      55.821
    9.000000,     2.000000,   2.00000,      45.118
    3.500000,     1.000000,   5.00000,      93.787
    4.500000,     1.000000,   5.00000,      40.855
    5.500000,     1.000000,   5.00000,      32.859
    6.500000,     1.000000,   5.00000,      15.351
    7.500000,     1.000000,   5.00000,      23.475
    8.500000,     1.000000,   5.00000,      59.740
    9.500000,     1.000000,   5.00000,      36.413
    6.000000,     4.000000,   1.00000,      36.896
    7.000000,     4.000000,   1.00000,      32.449
    4.000000,     1.000000,   6.00000,      42.369
    5.000000,     1.000000,   6.00000,      39.903
    6.000000,     1.000000,   6.00000,      69.415
    7.000000,     1.000000,   6.00000,      15.820
    8.000000,     1.000000,   6.00000,      15.195
    9.000000,     1.000000,   6.00000,      60.499
    5.000000,     2.000000,   3.00000,      58.423
    6.000000,     2.000000,   3.00000,      74.214
    7.000000,     2.000000,   3.00000,      32.167
    8.000000,     2.000000,   3.00000,      13.279
    4.500000,     1.000000,   7.00000,      42.677
    5.500000,     1.000000,   7.00000,      82.237
    6.500000,     1.000000,   7.00000,      69.666
    7.500000,     1.000000,   7.00000,      10.249
    8.500000,     1.000000,   7.00000,      15.096
    6.000000,     3.000000,   2.00000,      70.029
    7.000000,     3.000000,   2.00000,      38.679
    6.000000,     2.000000,   4.00000,      67.674
    7.000000,     2.000000,   4.00000,      49.430
INVERSION RESULTS
Initial RMS error
 60.70
NUMBER OF LAYERS
9
NUMBER OF BLOCKS
234
ITERATION 1
MODEL RESISTIVITY
LAYER 1
26,     0.250000
    0.500000,      68.835
    1.000000,      69.587
    1.500000,      65.863
    2.000000,      63.316
    2.500000,      64.563
    3.000000,      46.586
    3.500000,      23.517
    4.000000,      15.919
    4.500000,      16.365
    5.000000,      24.070
    5.500000,      48.633
    6.000000,      70.504
    6.500000,      64.991
    7.000000,      56.554
    7.500000,      47.640
    8.000000,      45.585
    8.500000,      53.041
    9.000000,      67.678
    9.500000,      87.824
   10.000000,      97.512
   10.500000,      101.02
   11.000000,      95.173
   11.500000,      78.611
   12.000000,      71.830
   12.500000,      70.866
                   70.790
LAYER 2
26,     0.512500
    0.500000,      68.103
    1.000000,      70.227
    1.500000,      68.658
    2.000000,      67.615
    2.500000,      67.786
    3.000000,      47.465
    3.500000,      22.433
    4.000000,      13.621
    4.500000,      13.920
    5.000000,      22.528
    5.500000,      49.327
    6.000000,      76.844
    6.500000,      71.239
    7.000000,      57.182
    7.500000,      45.166
    8.000000,      41.848
    8.500000,      49.132
    9.000000,      66.964
    9.500000,      90.551
   10.000000,      101.15
   10.500000,      103.32
   11.000000,      95.215
   11.500000,      78.062
   12.000000,      70.343
   12.500000,      69.385
                   70.142
LAYER 3
26,     0.788125
    0.500000,      66.939
    1.000000,      70.511
    1.500000,      72.686
    2.000000,      74.578
    2.500000,      72.738
    3.000000,      48.044
    3.500000,      20.285
    4.000000,      10.440
    4.500000,      10.419
    5.000000,      19.357
    5.500000,      48.959
    6.000000,      85.951
    6.500000,      80.052
    7.000000,      55.310
    7.500000,      37.943
    8.000000,      32.751
    8.500000,      39.631
    9.000000,      61.376
    9.500000,      91.397
   10.000000,      105.56
   10.500000,      104.75
   11.000000,      91.824
   11.500000,      73.634
   12.000000,      65.438
   12.500000,      65.381
                   67.813
LAYER 4
26,     1.077531
    0.500000,      64.374
    1.000000,      70.406
    1.500000,      75.630
    2.000000,      81.115
    2.500000,      79.522
    3.000000,      50.340
    3.500000,      18.488
    4.000000,      7.9326
    4.500000,      7.5783
    5.000000,      15.781
    5.500000,      46.929
    6.000000,      92.498
    6.500000,      83.825
    7.000000,      48.553
    7.500000,      27.754
    8.000000,      22.089
    8.500000,      28.127
    9.000000,      50.856
    9.500000,      86.717
   10.000000,      104.45
   10.500000,      100.05
   11.000000,      82.456
   11.500000,      63.788
   12.000000,      56.802
   12.500000,      58.776
                   63.703
LAYER 5
26,     1.381408
    0.500000,      62.637
    1.000000,      69.344
    1.500000,      76.581
    2.000000,      82.504
    2.500000,      76.788
    3.000000,      49.365
    3.500000,      20.973
    4.000000,      9.6664
    4.500000,      8.3765
    5.000000,      14.411
    5.500000,      33.894
    6.000000,      59.592
    6.500000,      54.764
    7.000000,      31.590
    7.500000,      17.570
    8.000000,      13.771
    8.500000,      17.654
    9.000000,      32.296
    9.500000,      56.314
   10.000000,      71.111
   10.500000,      67.993
   11.000000,      55.604
   11.500000,      45.111
   12.000000,      42.312
   12.500000,      45.523
                   50.852
LAYER 6
26,     1.700478
    0.500000,      62.838
    1.000000,      69.365
    1.500000,      76.361
    2.000000,      80.573
    2.500000,      74.352
    3.000000,      52.483
    3.500000,      28.524
    4.000000,      15.987
    4.500000,      13.254
    5.000000,      17.257
    5.500000,      28.454
    6.000000,      39.835
    6.500000,      37.188
    7.000000,      25.312
    7.500000,      16.582
    8.000000,      14.112
    8.500000,      17.181
    9.000000,      26.846
    9.500000,      40.999
   10.000000,      49.916
   10.500000,      48.811
   11.000000,      42.201
   11.500000,      37.193
   12.000000,      36.353
   12.500000,      39.333
                   43.310
LAYER 7
26,     2.035502
    0.500000,      62.912
    1.000000,      69.268
    1.500000,      76.279
    2.000000,      81.187
    2.500000,      75.908
    3.000000,      59.232
    3.500000,      38.970
    4.000000,      25.608
    4.500000,      20.815
    5.000000,      22.289
    5.500000,      27.825
    6.000000,      32.583
    6.500000,      30.824
    7.000000,      24.175
    7.500000,      18.700
    8.000000,      17.128
    8.500000,      19.583
    9.000000,      26.303
    9.500000,      34.593
   10.000000,      39.632
   10.500000,      39.218
   11.000000,      36.025
   11.500000,      33.623
   12.000000,      33.783
   12.500000,      36.259
                   39.212
LAYER 8
26,     2.387277
    0.500000,      61.208
    1.000000,      69.073
    1.500000,      77.968
    2.000000,      84.084
    2.500000,      81.938
    3.000000,      68.386
    3.500000,      50.815
    4.000000,      36.734
    4.500000,      29.587
    5.000000,      28.125
    5.500000,      29.750
    6.000000,      31.148
    6.500000,      29.567
    7.000000,      25.324
    7.500000,      22.005
    8.000000,      20.917
    8.500000,      22.957
    9.000000,      27.554
    9.500000,      32.473
   10.000000,      35.206
   10.500000,      34.842
   11.000000,      33.001
   11.500000,      31.869
   12.000000,      32.436
   12.500000,      34.657
                   36.939
LAYER 9
26, 
    0.500000,      56.360
    1.000000,      69.137
    1.500000,      81.092
    2.000000,      90.414
    2.500000,      91.594
    3.000000,      80.779
    3.500000,      63.035
    4.000000,      47.718
    4.500000,      37.749
    5.000000,      33.793
    5.500000,      32.801
    6.000000,      32.542
    6.500000,      30.602
    7.000000,      27.534
    7.500000,      25.050
    8.000000,      24.350
    8.500000,      26.176
    9.000000,      29.540
    9.500000,      32.759
   10.000000,      34.133
   10.500000,      33.152
   11.000000,      31.601
   11.500000,      30.677
   12.000000,      31.589
   12.500000,      33.562
                   35.999
CALCULATED APPARENT RESISTIVITY
    1.500000,     1.000000,   1.00000,      76.309
    2.500000,     1.000000,   1.00000,      33.890
    3.500000,     1.000000,   1.00000,      18.395
    4.500000,     1.000000,   1.00000,      18.449
    5.500000,     1.000000,   1.00000,      34.674
    6.500000,     1.000000,   1.00000,      57.873
    7.500000,     1.000000,   1.00000,      42.699
    8.500000,     1.000000,   1.00000,      50.182
    9.500000,     1.000000,   1.00000,      81.311
   10.500000,     1.000000,   1.00000,      87.211
   11.500000,     1.000000,   1.00000,      76.012
    2.000000,     1.000000,   2.00000,      34.908
    3.000000,     1.000000,   2.00000,      20.880
    4.000000,     1.000000,   2.00000,      35.307
    5.000000,     1.000000,   2.00000,      19.465
    6.000000,     1.000000,   2.00000,      21.509
    7.000000,     1.000000,   2.00000,      45.871
    8.000000,     1.000000,   2.00000,      49.241
    9.000000,     1.000000,   2.00000,      47.089
   10.000000,     1.000000,   2.00000,      58.761
   11.000000,     1.000000,   2.00000,      73.391
    3.000000,     2.000000,   1.00000,      29.940
    4.000000,     2.000000,   1.00000,      41.980
    5.000000,     2.000000,   1.00000,      23.424
    6.000000,     2.000000,   1.00000,      17.056
    7.000000,     2.000000,   1.00000,      39.435
    8.000000,     2.000000,   1.00000,      52.071
    9.000000,     2.000000,   1.00000,      43.500
   10.000000,     2.000000,   1.00000,      47.288
    2.500000,     1.000000,   3.00000,      21.480
    3.500000,     1.000000,   3.00000,      48.948
    4.500000,     1.000000,   3.00000,      43.529
    5.500000,     1.000000,   3.00000,      11.391
    6.500000,     1.000000,   3.00000,      15.414
    7.500000,     1.000000,   3.00000,      57.317
    8.500000,     1.000000,   3.00000,      50.125
    9.500000,     1.000000,   3.00000,      31.436
   10.500000,     1.000000,   3.00000,      45.489
    3.000000,     1.000000,   4.00000,      54.140
    4.000000,     1.000000,   4.00000,      58.309
    5.000000,     1.000000,   4.00000,      27.071
    6.000000,     1.000000,   4.00000,      9.3994
    7.000000,     1.000000,   4.00000,      19.537
    8.000000,     1.000000,   4.00000,      59.621
    9.000000,     1.000000,   4.00000,      36.431
   10.000000,     1.000000,   4.00000,      25.223
    4.500000,     3.000000,   1.00000,      41.345
    5.500000,     3.000000,   1.00000,      21.365
    6.500000,     3.000000,   1.00000,      18.866
    7.500000,     3.000000,   1.00000,      37.717
    8.500000,     3.000000,   1.00000,      41.107
    4.000000,     2.000000,   2.00000,      50.506
    5.000000,     2.000000,   2.00000,      29.596
    6.000000,     2.000000,   2.00000,      18.931
    7.000000,     2.000000,   2.00000,      17.744
    8.000000,     2.000000,   2.00000,      40.439
    9.000000,     2.000000,   2.00000,      37.784
    3.500000,     1.000000,   5.00000,      61.615
    4.500000,     1.000000,   5.00000,      34.961
    5.500000,     1.000000,   5.00000,      25.946
    6.500000,     1.000000,   5.00000,      13.972
    7.500000,     1.000000,   5.00000,      19.959
    8.500000,     1.000000,   5.00000,      43.611
    9.500000,     1.000000,   5.00000,      32.921
    6.000000,     4.000000,   1.00000,      28.655
    7.000000,     4.000000,   1.00000,      25.467
    4.000000,     1.000000,   6.00000,      35.752
    5.000000,     1.000000,   6.00000,      33.922
    6.000000,     1.000000,   6.00000,      42.328
    7.000000,     1.000000,   6.00000,      15.215
    8.000000,     1.000000,   6.00000,      14.420
    9.000000,     1.000000,   6.00000,      40.029
    5.000000,     2.000000,   3.00000,      42.998
    6.000000,     2.000000,   3.00000,      49.618
    7.000000,     2.000000,   3.00000,      25.549
    8.000000,     2.000000,   3.00000,      12.966
    4.500000,     1.000000,   7.00000,      34.853
    5.500000,     1.000000,   7.00000,      55.261
    6.500000,     1.000000,   7.00000,      47.205
    7.500000,     1.000000,   7.00000,      11.606
    8.500000,     1.000000,   7.00000,      13.278
    6.000000,     3.000000,   2.00000,      49.474
    7.000000,     3.000000,   2.00000,      31.095
    6.000000,     2.000000,   4.00000,      54.806
    7.000000,     2.000000,   4.00000,      40.787
  23.38
ITERATION 2
MODEL RESISTIVITY
LAYER 1
26,     0.250000
    0.500000,      89.538
    1.000000,      89.750
    1.500000,      89.995
    2.000000,      91.024
    2.500000,      92.003
    3.000000,      70.265
    3.500000,      26.476
    4.000000,      12.862
    4.500000,      12.679
    5.000000,      26.632
    5.500000,      68.531
    6.000000,      95.008
    6.500000,      88.922
    7.000000,      68.134
    7.500000,      60.608
    8.000000,      58.542
    8.500000,      63.739
    9.000000,      90.967
    9.500000,      115.92
   10.000000,      112.22
   10.500000,      111.93
   11.000000,      112.48
   11.500000,      80.535
   12.000000,      70.208
   12.500000,      69.702
                   69.650
LAYER 2
26,     0.512500
    0.500000,      89.401
    1.000000,      89.701
    1.500000,      90.636
    2.000000,      91.833
    2.500000,      92.105
    3.000000,      70.855
    3.500000,      25.430
    4.000000,      10.731
    4.500000,      10.713
    5.000000,      25.439
    5.500000,      69.620
    6.000000,      101.63
    6.500000,      95.285
    7.000000,      67.635
    7.500000,      56.368
    8.000000,      52.680
    8.500000,      56.954
    9.000000,      90.191
    9.500000,      116.05
   10.000000,      111.66
   10.500000,      111.33
   11.000000,      112.40
   11.500000,      80.623
   12.000000,      69.716
   12.500000,      69.250
                   69.392
LAYER 3
26,     0.788125
    0.500000,      89.034
    1.000000,      89.494
    1.500000,      90.512
    2.000000,      91.967
    2.500000,      92.815
    3.000000,      70.964
    3.500000,      23.050
    4.000000,      7.9883
    4.500000,      8.0018
    5.000000,      22.704
    5.500000,      70.175
    6.000000,      109.69
    6.500000,      102.45
    7.000000,      63.706
    7.500000,      35.165
    8.000000,      28.998
    8.500000,      33.041
    9.000000,      76.489
    9.500000,      115.46
   10.000000,      110.54
   10.500000,      110.49
   11.000000,      107.73
   11.500000,      76.643
   12.000000,      66.228
   12.500000,      66.200
                   67.488
LAYER 4
26,     1.077531
    0.500000,      88.105
    1.000000,      89.184
    1.500000,      88.776
    2.000000,      90.260
    2.500000,      90.995
    3.000000,      70.757
    3.500000,      22.347
    4.000000,      7.4400
    4.500000,      7.5727
    5.000000,      21.366
    5.500000,      71.249
    6.000000,      111.66
    6.500000,      102.34
    7.000000,      50.432
    7.500000,      16.922
    8.000000,      12.412
    8.500000,      15.739
    9.000000,      55.447
    9.500000,      111.26
   10.000000,      109.74
   10.500000,      106.82
   11.000000,      92.679
   11.500000,      62.916
   12.000000,      57.076
   12.500000,      58.565
                   62.938
LAYER 5
26,     1.381408
    0.500000,      87.084
    1.000000,      87.520
    1.500000,      87.412
    2.000000,      88.467
    2.500000,      88.264
    3.000000,      69.860
    3.500000,      24.095
    4.000000,      9.3659
    4.500000,      9.2248
    5.000000,      22.124
    5.500000,      58.284
    6.000000,      78.709
    6.500000,      72.422
    7.000000,      30.844
    7.500000,      13.395
    8.000000,      11.783
    8.500000,      14.515
    9.000000,      34.630
    9.500000,      66.612
   10.000000,      67.429
   10.500000,      64.231
   11.000000,      48.838
   11.500000,      38.197
   12.000000,      37.822
   12.500000,      40.094
                   43.861
LAYER 6
26,     1.700478
    0.500000,      86.886
    1.000000,      86.971
    1.500000,      86.819
    2.000000,      86.267
    2.500000,      85.474
    3.000000,      69.687
    3.500000,      34.693
    4.000000,      20.750
    4.500000,      20.774
    5.000000,      27.707
    5.500000,      50.760
    6.000000,      55.928
    6.500000,      53.097
    7.000000,      32.153
    7.500000,      15.092
    8.000000,      12.628
    8.500000,      15.484
    9.000000,      34.376
    9.500000,      48.630
   10.000000,      47.530
   10.500000,      46.322
   11.000000,      38.204
   11.500000,      34.032
   12.000000,      33.988
   12.500000,      35.414
                   37.162
LAYER 7
26,     2.035502
    0.500000,      86.698
    1.000000,      86.535
    1.500000,      86.390
    2.000000,      85.611
    2.500000,      84.314
    3.000000,      70.953
    3.500000,      47.837
    4.000000,      37.343
    4.500000,      37.449
    5.000000,      39.270
    5.500000,      50.282
    6.000000,      51.109
    6.500000,      49.063
    7.000000,      34.655
    7.500000,      22.003
    8.000000,      21.071
    8.500000,      22.770
    9.000000,      35.130
    9.500000,      42.054
   10.000000,      40.260
   10.500000,      39.735
   11.000000,      35.612
   11.500000,      33.498
   12.000000,      33.418
   12.500000,      34.006
                   34.890
LAYER 8
26,     2.387277
    0.500000,      85.692
    1.000000,      86.270
    1.500000,      85.386
    2.000000,      84.004
    2.500000,      82.990
    3.000000,      73.839
    3.500000,      58.733
    4.000000,      49.964
    4.500000,      48.504
    5.000000,      49.001
    5.500000,      50.916
    6.000000,      51.253
    6.500000,      49.314
    7.000000,      38.634
    7.500000,      33.170
    8.000000,      32.535
    8.500000,      33.142
    9.000000,      37.584
    9.500000,      40.587
   10.000000,      38.676
   10.500000,      37.999
   11.000000,      35.112
   11.500000,      33.723
   12.000000,      33.413
   12.500000,      33.547
                   33.863
LAYER 9
26, 
    0.500000,      83.076
    1.000000,      86.107
    1.500000,      84.663
    2.000000,      83.217
    2.500000,      82.802
    3.000000,      76.740
    3.500000,      64.712
    4.000000,      56.597
    4.500000,      54.244
    5.000000,      53.688
    5.500000,      53.327
    6.000000,      53.024
    6.500000,      50.584
    7.000000,      44.844
    7.500000,      42.119
    8.000000,      41.754
    8.500000,      41.209
    9.000000,      41.018
    9.500000,      40.610
   10.000000,      38.984
   10.500000,      37.547
   11.000000,      34.935
   11.500000,      33.756
   12.000000,      33.290
   12.500000,      33.282
                   33.585
CALCULATED APPARENT RESISTIVITY
    1.500000,     1.000000,   1.00000,      99.216
    2.500000,     1.000000,   1.00000,      38.372
    3.500000,     1.000000,   1.00000,      17.449
    4.500000,     1.000000,   1.00000,      17.875
    5.500000,     1.000000,   1.00000,      40.299
    6.500000,     1.000000,   1.00000,      71.138
    7.500000,     1.000000,   1.00000,      43.611
    8.500000,     1.000000,   1.00000,      56.057
    9.500000,     1.000000,   1.00000,      96.356
   10.500000,     1.000000,   1.00000,      91.626
   11.500000,     1.000000,   1.00000,      80.413
    2.000000,     1.000000,   2.00000,      35.926
    3.000000,     1.000000,   2.00000,      18.864
    4.000000,     1.000000,   2.00000,      48.381
    5.000000,     1.000000,   2.00000,      19.083
    6.000000,     1.000000,   2.00000,      22.270
    7.000000,     1.000000,   2.00000,      48.912
    8.000000,     1.000000,   2.00000,      50.531
    9.000000,     1.000000,   2.00000,      45.693
   10.000000,     1.000000,   2.00000,      63.778
   11.000000,     1.000000,   2.00000,      74.733
    3.000000,     2.000000,   1.00000,      33.150
    4.000000,     2.000000,   1.00000,      56.400
    5.000000,     2.000000,   1.00000,      26.603
    6.000000,     2.000000,   1.00000,      16.836
    7.000000,     2.000000,   1.00000,      43.906
    8.000000,     2.000000,   1.00000,      57.627
    9.000000,     2.000000,   1.00000,      42.537
   10.000000,     2.000000,   1.00000,      49.373
    2.500000,     1.000000,   3.00000,      18.812
    3.500000,     1.000000,   3.00000,      64.565
    4.500000,     1.000000,   3.00000,      59.293
    5.500000,     1.000000,   3.00000,      9.9826
    6.500000,     1.000000,   3.00000,      14.501
    7.500000,     1.000000,   3.00000,      71.855
    8.500000,     1.000000,   3.00000,      51.720
    9.500000,     1.000000,   3.00000,      28.145
   10.500000,     1.000000,   3.00000,      47.967
    3.000000,     1.000000,   4.00000,      70.429
    4.000000,     1.000000,   4.00000,      74.377
    5.000000,     1.000000,   4.00000,      32.066
    6.000000,     1.000000,   4.00000,      8.0475
    7.000000,     1.000000,   4.00000,      21.792
    8.000000,     1.000000,   4.00000,      76.463
    9.000000,     1.000000,   4.00000,      37.182
   10.000000,     1.000000,   4.00000,      22.612
    4.500000,     3.000000,   1.00000,      51.677
    5.500000,     3.000000,   1.00000,      23.536
    6.500000,     3.000000,   1.00000,      20.468
    7.500000,     3.000000,   1.00000,      46.063
    8.500000,     3.000000,   1.00000,      46.310
    4.000000,     2.000000,   2.00000,      61.593
    5.000000,     2.000000,   2.00000,      33.885
    6.000000,     2.000000,   2.00000,      21.402
    7.000000,     2.000000,   2.00000,      19.101
    8.000000,     2.000000,   2.00000,      50.330
    9.000000,     2.000000,   2.00000,      42.904
    3.500000,     1.000000,   5.00000,      77.009
    4.500000,     1.000000,   5.00000,      38.306
    5.500000,     1.000000,   5.00000,      30.507
    6.500000,     1.000000,   5.00000,      13.975
    7.500000,     1.000000,   5.00000,      22.219
    8.500000,     1.000000,   5.00000,      54.600
    9.500000,     1.000000,   5.00000,      35.459
    6.000000,     4.000000,   1.00000,      32.718
    7.000000,     4.000000,   1.00000,      29.113
    4.000000,     1.000000,   6.00000,      38.396
    5.000000,     1.000000,   6.00000,      37.308
    6.000000,     1.000000,   6.00000,      56.109
    7.000000,     1.000000,   6.00000,      14.779
    8.000000,     1.000000,   6.00000,      15.300
    9.000000,     1.000000,   6.00000,      52.125
    5.000000,     2.000000,   3.00000,      50.146
    6.000000,     2.000000,   3.00000,      62.150
    7.000000,     2.000000,   3.00000,      29.033
    8.000000,     2.000000,   3.00000,      13.078
    4.500000,     1.000000,   7.00000,      38.309
    5.500000,     1.000000,   7.00000,      67.871
    6.500000,     1.000000,   7.00000,      59.568
    7.500000,     1.000000,   7.00000,      10.492
    8.500000,     1.000000,   7.00000,      14.324
    6.000000,     3.000000,   2.00000,      59.941
    7.000000,     3.000000,   2.00000,      34.810
    6.000000,     2.000000,   4.00000,      61.811
    7.000000,     2.000000,   4.00000,      45.166
   7.94
ITERATION 3
MODEL RESISTIVITY
LAYER 1
26,     0.250000
    0.500000,      99.590
    1.000000,      99.551
    1.500000,      99.011
    2.000000,      99.648
    2.500000,      101.36
    3.000000,      77.714
    3.500000,      29.052
    4.000000,      14.423
    4.500000,      14.202
    5.000000,      28.351
    5.500000,      72.536
    6.000000,      114.71
    6.500000,      108.38
    7.000000,      84.658
    7.500000,      82.379
    8.000000,      81.865
    8.500000,      93.146
    9.000000,      94.722
    9.500000,      123.11
   10.000000,      113.91
   10.500000,      113.26
   11.000000,      115.69
   11.500000,      85.877
   12.000000,      74.536
   12.500000,      75.894
                   75.924
LAYER 2
26,     0.512500
    0.500000,      99.522
    1.000000,      99.528
    1.500000,      98.898
    2.000000,      100.21
    2.500000,      101.25
    3.000000,      78.249
    3.500000,      26.936
    4.000000,      11.373
    4.500000,      11.373
    5.000000,      26.721
    5.500000,      73.893
    6.000000,      119.26
    6.500000,      110.45
    7.000000,      83.983
    7.500000,      81.759
    8.000000,      79.809
    8.500000,      82.099
    9.000000,      94.649
    9.500000,      122.68
   10.000000,      112.77
   10.500000,      112.63
   11.000000,      115.80
   11.500000,      86.054
   12.000000,      74.611
   12.500000,      75.638
                   75.908
LAYER 3
26,     0.788125
    0.500000,      99.119
    1.000000,      99.088
    1.500000,      98.835
    2.000000,      100.02
    2.500000,      100.74
    3.000000,      78.366
    3.500000,      22.373
    4.000000,      6.9265
    4.500000,      6.9193
    5.000000,      22.248
    5.500000,      74.462
    6.000000,      123.17
    6.500000,      111.33
    7.000000,      71.718
    7.500000,      34.590
    8.000000,      28.304
    8.500000,      27.467
    9.000000,      75.344
    9.500000,      121.19
   10.000000,      111.70
   10.500000,      111.54
   11.000000,      114.61
   11.500000,      81.923
   12.000000,      71.675
   12.500000,      72.202
                   74.663
LAYER 4
26,     1.077531
    0.500000,      97.730
    1.000000,      98.058
    1.500000,      97.234
    2.000000,      98.127
    2.500000,      98.718
    3.000000,      78.439
    3.500000,      21.903
    4.000000,      6.5051
    4.500000,      6.5533
    5.000000,      20.868
    5.500000,      74.714
    6.000000,      123.28
    6.500000,      111.17
    7.000000,      44.782
    7.500000,      8.6928
    8.000000,      7.1277
    8.500000,      8.6783
    9.000000,      54.333
    9.500000,      115.65
   10.000000,      111.48
   10.500000,      107.94
   11.000000,      95.557
   11.500000,      56.009
   12.000000,      56.013
   12.500000,      60.350
                   70.610
LAYER 5
26,     1.381408
    0.500000,      94.036
    1.000000,      93.725
    1.500000,      93.639
    2.000000,      93.911
    2.500000,      93.895
    3.000000,      78.831
    3.500000,      22.752
    4.000000,      7.5095
    4.500000,      7.5072
    5.000000,      20.594
    5.500000,      68.646
    6.000000,      90.051
    6.500000,      82.640
    7.000000,      30.537
    7.500000,      8.1566
    8.000000,      7.4927
    8.500000,      9.5675
    9.000000,      48.168
    9.500000,      76.779
   10.000000,      74.644
   10.500000,      65.502
   11.000000,      34.705
   11.500000,      26.454
   12.000000,      26.918
   12.500000,      31.997
                   38.982
LAYER 6
26,     1.700478
    0.500000,      92.442
    1.000000,      92.146
    1.500000,      91.983
    2.000000,      91.511
    2.500000,      91.042
    3.000000,      79.179
    3.500000,      35.301
    4.000000,      21.320
    4.500000,      21.279
    5.000000,      27.006
    5.500000,      67.345
    6.000000,      70.646
    6.500000,      68.048
    7.000000,      32.941
    7.500000,      10.198
    8.000000,      8.9539
    8.500000,      11.355
    9.000000,      48.348
    9.500000,      55.840
   10.000000,      53.176
   10.500000,      48.948
   11.000000,      30.499
   11.500000,      27.612
   12.000000,      27.739
   12.500000,      29.672
                   32.087
LAYER 7
26,     2.035502
    0.500000,      91.293
    1.000000,      91.100
    1.500000,      91.136
    2.000000,      90.798
    2.500000,      90.154
    3.000000,      80.624
    3.500000,      55.978
    4.000000,      47.289
    4.500000,      47.182
    5.000000,      48.022
    5.500000,      68.081
    6.000000,      69.322
    6.500000,      68.805
    7.000000,      40.805
    7.500000,      26.203
    8.000000,      26.513
    8.500000,      28.504
    9.000000,      49.629
    9.500000,      50.617
   10.000000,      45.184
   10.500000,      42.716
   11.000000,      31.065
   11.500000,      28.567
   12.000000,      28.679
   12.500000,      29.389
                   30.335
LAYER 8
26,     2.387277
    0.500000,      90.165
    1.000000,      90.067
    1.500000,      90.031
    2.000000,      89.828
    2.500000,      89.676
    3.000000,      83.235
    3.500000,      70.987
    4.000000,      66.180
    4.500000,      66.240
    5.000000,      66.556
    5.500000,      69.240
    6.000000,      69.688
    6.500000,      69.379
    7.000000,      53.542
    7.500000,      50.559
    8.000000,      50.575
    8.500000,      50.706
    9.000000,      53.072
    9.500000,      52.005
   10.000000,      44.639
   10.500000,      41.000
   11.000000,      31.292
   11.500000,      29.025
   12.000000,      29.054
   12.500000,      29.418
                   29.801
LAYER 9
26, 
    0.500000,      88.388
    1.000000,      89.345
    1.500000,      89.379
    2.000000,      89.588
    2.500000,      89.568
    3.000000,      84.619
    3.500000,      76.188
    4.000000,      72.325
    4.500000,      72.618
    5.000000,      72.893
    5.500000,      73.007
    6.000000,      72.992
    6.500000,      72.237
    7.000000,      67.945
    7.500000,      63.244
    8.000000,      61.673
    8.500000,      58.654
    9.000000,      56.546
    9.500000,      52.893
   10.000000,      44.928
   10.500000,      40.170
   11.000000,      31.280
   11.500000,      29.201
   12.000000,      29.258
   12.500000,      29.470
                   29.836
CALCULATED APPARENT RESISTIVITY
    1.500000,     1.000000,   1.00000,      109.44
    2.500000,     1.000000,   1.00000,      40.873
    3.500000,     1.000000,   1.00000,      17.588
    4.500000,     1.000000,   1.00000,      17.996
    5.500000,     1.000000,   1.00000,      43.737
    6.500000,     1.000000,   1.00000,      83.359
    7.500000,     1.000000,   1.00000,      50.222
    8.500000,     1.000000,   1.00000,      61.001
    9.500000,     1.000000,   1.00000,      99.309
   10.500000,     1.000000,   1.00000,      94.575
   11.500000,     1.000000,   1.00000,      82.803
    2.000000,     1.000000,   2.00000,      38.103
    3.000000,     1.000000,   2.00000,      18.473
    4.000000,     1.000000,   2.00000,      49.902
    5.000000,     1.000000,   2.00000,      19.682
    6.000000,     1.000000,   2.00000,      23.364
    7.000000,     1.000000,   2.00000,      48.591
    8.000000,     1.000000,   2.00000,      47.660
    9.000000,     1.000000,   2.00000,      45.662
   10.000000,     1.000000,   2.00000,      66.244
   11.000000,     1.000000,   2.00000,      74.216
    3.000000,     2.000000,   1.00000,      34.466
    4.000000,     2.000000,   1.00000,      60.209
    5.000000,     2.000000,   1.00000,      28.279
    6.000000,     2.000000,   1.00000,      17.116
    7.000000,     2.000000,   1.00000,      44.183
    8.000000,     2.000000,   1.00000,      57.139
    9.000000,     2.000000,   1.00000,      42.084
   10.000000,     2.000000,   1.00000,      50.336
    2.500000,     1.000000,   3.00000,      18.608
    3.500000,     1.000000,   3.00000,      68.786
    4.500000,     1.000000,   3.00000,      65.500
    5.500000,     1.000000,   3.00000,      9.8597
    6.500000,     1.000000,   3.00000,      13.509
    7.500000,     1.000000,   3.00000,      74.810
    8.500000,     1.000000,   3.00000,      50.591
    9.500000,     1.000000,   3.00000,      27.358
   10.500000,     1.000000,   3.00000,      48.174
    3.000000,     1.000000,   4.00000,      77.507
    4.000000,     1.000000,   4.00000,      84.008
    5.000000,     1.000000,   4.00000,      33.660
    6.000000,     1.000000,   4.00000,      7.6031
    7.000000,     1.000000,   4.00000,      22.240
    8.000000,     1.000000,   4.00000,      82.291
    9.000000,     1.000000,   4.00000,      36.634
   10.000000,     1.000000,   4.00000,      21.075
    4.500000,     3.000000,   1.00000,      57.008
    5.500000,     3.000000,   1.00000,      25.065
    6.500000,     3.000000,   1.00000,      21.159
    7.500000,     3.000000,   1.00000,      48.317
    8.500000,     3.000000,   1.00000,      47.252
    4.000000,     2.000000,   2.00000,      69.165
    5.000000,     2.000000,   2.00000,      35.757
    6.000000,     2.000000,   2.00000,      22.988
    7.000000,     2.000000,   2.00000,      19.665
    8.000000,     2.000000,   2.00000,      53.589
    9.000000,     2.000000,   2.00000,      43.834
    3.500000,     1.000000,   5.00000,      89.104
    4.500000,     1.000000,   5.00000,      40.617
    5.500000,     1.000000,   5.00000,      32.033
    6.500000,     1.000000,   5.00000,      14.678
    7.500000,     1.000000,   5.00000,      22.923
    8.500000,     1.000000,   5.00000,      57.936
    9.500000,     1.000000,   5.00000,      35.265
    6.000000,     4.000000,   1.00000,      35.807
    7.000000,     4.000000,   1.00000,      31.292
    4.000000,     1.000000,   6.00000,      41.381
    5.000000,     1.000000,   6.00000,      39.810
    6.000000,     1.000000,   6.00000,      64.890
    7.000000,     1.000000,   6.00000,      15.222
    8.000000,     1.000000,   6.00000,      15.334
    9.000000,     1.000000,   6.00000,      55.139
    5.000000,     2.000000,   3.00000,      56.653
    6.000000,     2.000000,   3.00000,      70.878
    7.000000,     2.000000,   3.00000,      31.130
    8.000000,     2.000000,   3.00000,      12.959
    4.500000,     1.000000,   7.00000,      41.827
    5.500000,     1.000000,   7.00000,      79.051
    6.500000,     1.000000,   7.00000,      66.334
    7.500000,     1.000000,   7.00000,      10.316
    8.500000,     1.000000,   7.00000,      14.191
    6.000000,     3.000000,   2.00000,      67.601
    7.000000,     3.000000,   2.00000,      37.130
    6.000000,     2.000000,   4.00000,      67.560
    7.000000,     2.000000,   4.00000,      46.925
   2.94
REFERENCE MODEL USED
CONSTANT REFERENCE MODEL METHOD
Reference resistivity is
39.314
Model inversion constraint
1
Data inversion constraint
1

Inversion settings
Initial damping factor (0.01 to 1.00)
0.1500
Minimum damping factor (0.001 to 0.75)
0.0200
Local optimization option (0=No, 1=Yes)
1
Convergence limit for relative change in RMS error in percent (0.1 to 20)
5.0000
Minimum change in RMS error for line search in percent (0.5 to 100)
0.5000
Number of iterations (1 to 30)
3
Vertical to horizontal flatness filter ratio (0.25 to 4.0)
1.0000
Model for increase in thickness of layers(0=default 10%, 1=default 25%, 2=user defined)
2
Number of nodes between adjacent electrodes (2 or 4)
2
Flatness filter type, Include smoothing of model resistivity (0=model changes only,1=directly on model)
1
Reduce number of topographical data points? (0=No,1=Yes. Recommend leave at 0)
0
Carry out topography modeling? (0=No,1=Yes)
1
Type of topography trend removal (0=Average,1=Least-squares,2=End to end)
2
Type of Jacobian matrix calculation (0=Quasi-Newton, 1=Gauss-Newton, 2=Mixed)
1
Increase of damping factor with depth (1.0 to 2.0)
1.0500
Type of topographical modeling (0=None, 1=No longer supported so do not use, 2=uniform distorted FEM, 3=underwater, 4=damped FEM, 5=FEM with inverse Swartz-Christoffel)
0
Robust data constrain? (0=No, 1=Yes)
1
Cutoff factor for data constrain (0.0001 to 0.1))
0.0500
Robust model constrain? (0=No, 1=Yes)
1
Cutoff factor for model constrain (0.0001 to 1.0)
0.0050
Allow number of model parameters to exceed data points?  (0=No, 1=Yes)
1
Use extended model? (0=No, 1=Yes)
1
Reduce effect of side blocks? (0=No, 1=Slight, 2=Severe, 3=Very Severe)
1
Type of mesh (0=Normal,1=Fine,2=Finest)
0
Optimise damping factor? (0=No, 1=Yes)
1
Time-lapse inversion constrain (0=None,1&2=Smooth,3=Robust)
3
Type of time-lapse inversion method (0=Simultaneous,1=Sequential)
0
Thickness of first layer (0.25 to 1.0)
0.5000
Factor to increase thickness layer with depth (1.0 to 1.25)
1.0500
USE FINITE ELEMENT METHOD (YES=1,NO=0)
0
WIDTH OF BLOCKS (1=NORMAL WIDTH, 2=DOUBLE, 3=TRIPLE, 4=QUADRAPLE, 5=QUINTIPLE)
1
MAKE SURE BLOCKS HAVE THE SAME WIDTH (YES=1,NO=0)
1
RMS CONVERGENCE LIMIT (IN PERCENT)
0.100
USE LOGARITHM OF APPARENT RESISTIVITY (0=USE LOG OF APPARENT RESISTIVITY, 1=USE RESISTANCE VALUES, 2=USE APPARENT RESISTIVITY)
0
TYPE OF IP INVERSION METHOD (0=CONCURRENT,1=SEQUENTIAL)
0
PROCEED AUTOMATICALLY FOR SEQUENTIAL METHOD (1=YES,0=NO)
0
IP DAMPING FACTOR (0.01 to 1.0)
1.000
USE AUTOMATIC IP DAMPING FACTOR (YES=1,NO=0)
0
CUTOFF FACTOR FOR BOREHOLE DATA (0.0005 to 0.02)
0.00010
TYPE OF CROSS-BOREHOLE MODEL (0=normal,1=halfsize)
0
LIMIT RESISTIVITY VALUES(0=No,1=Yes)
0
Upper limit factor (10-50)
50.000
Lower limit factor (0.02 to 0.1)
0.020
Type of reference resistivity (0=average,1=first iteration)
0
Model refinement (1.0=Normal,0.5=Half-width cells)
0.50
Combined Combined Marquardt and Occam inversion (0=Not used,1=used)
0
Type of optimisation method (0=Gauss-Newton,2=Incomplete GN)
2
Convergence limit for Incomplete Gauss-Newton method (0.005 to 0.05)
0.005
Use data compression with Incomplete Gauss-Newton (0=No,1=Yes)
0
Use reference model in inversion (0=No,1=Yes)
1
Damping factor for reference model (0.0 to 0.3)
0.01000
Use fast method to calculate Jacobian matrix. (0=No,1=Yes)
1
Use higher damping for first layer? (0=No,1=Yes)
1
Extra damping factor for first layer (1.0 to 100.0)
5.00000
Type of finite-element method (0=Triangular,1=Trapezoidal elements)
1
Factor to increase model depth range (1.0 to 5.0)
1.000
Reduce model variations near borehole (0=No, 1=Yes)
0
Factor to control the degree variations near the boreholes are reduced (2 to 100)
5.0
Factor to control variation of borehole damping factor with distance (0.5 to 5.0)
1.0
Floating electrodes survey inversion method (0=use fixed water layer, 1=Incorporate water layer into the model)
1
Resistivity variation within water layer (0=allow resistivity to vary freely,1=minimise variation)
1
Use sparse inversion method for very long survey lines (0=No, 1=Yes)
0
Optimize Jacobian matrix calculation (0=No, 1=Yes)
0
Automatically switch electrodes for negative geometric factor (0=No, 1=Yes)
1
Force resistance value to be consistant with the geometric factor (0=No, 1=Yes)
0
Shift the electrodes to round up positions of electrodes (0=No, 1=Yes)
0
Use difference of measurements in time-lapse inversion (0=No,1=Yes)
0
Use active constraint balancing (0=No,1=Yes)
0
Type of active constraints (0=Normal,1=Reverse)
0
Lower damping factor limit for active constraints 
0.4000
Upper damping factor limit for active constraints 
2.5000
Water resistivity variation damping factor
8.0000
Use automatic calculation for change of damping factor with depth (0=No,1=Yes)
0

Mean Error 0.0192
Average absolute error 0.0294
Standard deviation of error distribution 0.0380
Error Distribution
      0.0000,      1.0000,  1.00000,   114.38,   109.44,  0.0441
      1.0000,      1.0000,  1.00000,    43.52,    40.87,  0.0629
      2.0000,      1.0000,  1.00000,    17.37,    17.59, -0.0124
      3.0000,      1.0000,  1.00000,    17.91,    18.00, -0.0046
      4.0000,      1.0000,  1.00000,    45.83,    43.74,  0.0468
      5.0000,      1.0000,  1.00000,    83.18,    83.36, -0.0021
      6.0000,      1.0000,  1.00000,    59.28,    50.22,  0.1658   ***
      7.0000,      1.0000,  1.00000,    62.98,    61.00,  0.0320
      8.0000,      1.0000,  1.00000,    96.00,    99.31, -0.0339
      9.0000,      1.0000,  1.00000,    94.82,    94.57,  0.0026
     10.0000,      1.0000,  1.00000,    88.33,    82.80,  0.0646
      0.0000,      1.0000,  2.00000,    37.41,    38.10, -0.0183
      1.0000,      1.0000,  2.00000,    18.32,    18.47, -0.0084
      2.0000,      1.0000,  2.00000,    47.71,    49.90, -0.0450
      3.0000,      1.0000,  2.00000,    19.58,    19.68, -0.0052
      4.0000,      1.0000,  2.00000,    23.60,    23.36,  0.0101
      5.0000,      1.0000,  2.00000,    46.94,    48.59, -0.0346
      6.0000,      1.0000,  2.00000,    45.42,    47.66, -0.0482
      7.0000,      1.0000,  2.00000,    44.95,    45.66, -0.0157
      8.0000,      1.0000,  2.00000,    70.26,    66.24,  0.0589
      9.0000,      1.0000,  2.00000,    69.37,    74.22, -0.0675
      0.0000,      2.0000,  1.00000,    34.97,    34.47,  0.0144
      1.0000,      2.0000,  1.00000,    59.56,    60.21, -0.0108
      2.0000,      2.0000,  1.00000,    28.55,    28.28,  0.0094
      3.0000,      2.0000,  1.00000,    17.23,    17.12,  0.0065
      4.0000,      2.0000,  1.00000,    43.31,    44.18, -0.0199
      5.0000,      2.0000,  1.00000,    56.37,    57.14, -0.0135
      6.0000,      2.0000,  1.00000,    41.80,    42.08, -0.0067
      7.0000,      2.0000,  1.00000,    52.47,    50.34,  0.0414
      0.0000,      1.0000,  3.00000,    19.34,    18.61,  0.0387
      1.0000,      1.0000,  3.00000,    69.07,    68.79,  0.0041
      2.0000,      1.0000,  3.00000,    66.50,    65.50,  0.0152
      3.0000,      1.0000,  3.00000,    10.13,     9.86,  0.0269
      4.0000,      1.0000,  3.00000,    13.15,    13.51, -0.0270
      5.0000,      1.0000,  3.00000,    74.96,    74.81,  0.0020
      6.0000,      1.0000,  3.00000,    50.06,    50.59, -0.0106
      7.0000,      1.0000,  3.00000,    28.45,    27.36,  0.0393
      8.0000,      1.0000,  3.00000,    47.81,    48.17, -0.0076
      0.0000,      1.0000,  4.00000,    81.24,    77.51,  0.0471
      1.0000,      1.0000,  4.00000,    85.97,    84.01,  0.0231
      2.0000,      1.0000,  4.00000,    34.29,    33.66,  0.0187
      3.0000,      1.0000,  4.00000,     7.72,     7.60,  0.0147
      4.0000,      1.0000,  4.00000,    22.20,    22.24, -0.0018
      5.0000,      1.0000,  4.00000,    86.57,    82.29,  0.0507
      6.0000,      1.0000,  4.00000,    36.24,    36.63, -0.0108
      7.0000,      1.0000,  4.00000,    20.81,    21.08, -0.0127
      0.0000,      3.0000,  1.00000,    58.28,    57.01,  0.0220
      1.0000,      3.0000,  1.00000,    25.77,    25.06,  0.0276
      2.0000,      3.0000,  1.00000,    21.63,    21.16,  0.0221
      3.0000,      3.0000,  1.00000,    49.28,    48.32,  0.0198
      4.0000,      3.0000,  1.00000,    48.29,    47.25,  0.0217
      0.0000,      2.0000,  2.00000,    71.22,    69.17,  0.0292
      1.0000,      2.0000,  2.00000,    36.27,    35.76,  0.0142
      2.0000,      2.0000,  2.00000,    24.02,    22.99,  0.0440
      3.0000,      2.0000,  2.00000,    20.01,    19.67,  0.0176
      4.0000,      2.0000,  2.00000,    55.82,    53.59,  0.0408
      5.0000,      2.0000,  2.00000,    45.12,    43.83,  0.0289
      0.0000,      1.0000,  5.00000,    93.79,    89.10,  0.0512
      1.0000,      1.0000,  5.00000,    40.86,    40.62,  0.0058
      2.0000,      1.0000,  5.00000,    32.86,    32.03,  0.0254
      3.0000,      1.0000,  5.00000,    15.35,    14.68,  0.0449
      4.0000,      1.0000,  5.00000,    23.47,    22.92,  0.0238
      5.0000,      1.0000,  5.00000,    59.74,    57.94,  0.0307
      6.0000,      1.0000,  5.00000,    36.41,    35.27,  0.0320
      0.0000,      4.0000,  1.00000,    36.90,    35.81,  0.0300
      1.0000,      4.0000,  1.00000,    32.45,    31.29,  0.0363
      0.0000,      1.0000,  6.00000,    42.37,    41.38,  0.0236
      1.0000,      1.0000,  6.00000,    39.90,    39.81,  0.0023
      2.0000,      1.0000,  6.00000,    69.41,    64.89,  0.0674
      3.0000,      1.0000,  6.00000,    15.82,    15.22,  0.0385
      4.0000,      1.0000,  6.00000,    15.19,    15.33, -0.0091
      5.0000,      1.0000,  6.00000,    60.50,    55.14,  0.0928
      0.0000,      2.0000,  3.00000,    58.42,    56.65,  0.0308
      1.0000,      2.0000,  3.00000,    74.21,    70.88,  0.0460
      2.0000,      2.0000,  3.00000,    32.17,    31.13,  0.0328
      3.0000,      2.0000,  3.00000,    13.28,    12.96,  0.0244
      0.0000,      1.0000,  7.00000,    42.68,    41.83,  0.0201
      1.0000,      1.0000,  7.00000,    82.24,    79.05,  0.0395
      2.0000,      1.0000,  7.00000,    69.67,    66.33,  0.0490
      3.0000,      1.0000,  7.00000,    10.25,    10.32, -0.0065
      4.0000,      1.0000,  7.00000,    15.10,    14.19,  0.0619
      0.0000,      3.0000,  2.00000,    70.03,    67.60,  0.0353
      1.0000,      3.0000,  2.00000,    38.68,    37.13,  0.0409
      0.0000,      2.0000,  4.00000,    67.67,    67.56,  0.0017
      1.0000,      2.0000,  4.00000,    49.43,    46.93,  0.0520

Iteration  Time for this iteration  Total Time   % Abs. Error
     1               0.45               0.45       23.379
     2               0.22               0.67        7.944
     3               0.27               0.94        2.941

RES2DINVx32 ver. 3.71.118
Windows 7 Version 6.2
Key ID number is Semidemo
